;,2THETA,
5.0000,243
5.0186,267
5.0372,266
5.0557,283
5.0743,263
5.0929,277
5.1115,264
5.1300,253
5.1486,233
5.1672,265
5.1858,290
5.2043,231
5.2229,259
5.2415,239
5.2601,248
5.2786,242
5.2972,231
5.3158,236
5.3344,250
5.3529,242
5.3715,223
5.3901,244
5.4087,227
5.4272,245
5.4458,227
5.4644,213
5.4830,227
5.5015,227
5.5201,227
5.5387,211
5.5573,220
5.5758,230
5.5944,225
5.6130,225
5.6316,210
5.6501,206
5.6687,224
5.6873,232
5.7059,219
5.7244,238
5.7430,198
5.7616,195
5.7802,216
5.7988,218
5.8173,198
5.8359,197
5.8545,212
5.8731,198
5.8916,183
5.9102,222
5.9288,188
5.9474,184
5.9659,205
5.9845,188
6.0031,155
6.0217,216
6.0402,196
6.0588,192
6.0774,174
6.0960,172
6.1145,182
6.1331,209
6.1517,162
6.1703,201
6.1888,191
6.2074,206
6.2260,188
6.2446,204
6.2631,190
6.2817,212
6.3003,185
6.3189,194
6.3374,190
6.3560,181
6.3746,166
6.3932,183
6.4117,209
6.4303,181
6.4489,180
6.4675,173
6.4860,179
6.5046,179
6.5232,161
6.5418,183
6.5604,169
6.5789,186
6.5975,177
6.6161,165
6.6347,164
6.6532,167
6.6718,161
6.6904,175
6.7090,166
6.7275,195
6.7461,185
6.7647,153
6.7833,185
6.8018,167
6.8204,177
6.8390,169
6.8576,185
6.8761,182
6.8947,188
6.9133,176
6.9319,155
6.9504,158
6.9690,163
6.9876,172
7.0062,179
7.0247,162
7.0433,167
7.0619,154
7.0805,184
7.0990,187
7.1176,159
7.1362,175
7.1548,163
7.1733,170
7.1919,153
7.2105,177
7.2291,166
7.2476,160
7.2662,157
7.2848,147
7.3034,185
7.3220,157
7.3405,152
7.3591,143
7.3777,174
7.3963,144
7.4148,180
7.4334,169
7.4520,142
7.4706,159
7.4891,171
7.5077,209
7.5263,182
7.5449,185
7.5634,172
7.5820,175
7.6006,162
7.6192,169
7.6377,143
7.6563,196
7.6749,163
7.6935,170
7.7120,159
7.7306,160
7.7492,177
7.7678,176
7.7863,190
7.8049,170
7.8235,191
7.8421,192
7.8606,196
7.8792,177
7.8978,184
7.9164,196
7.9349,162
7.9535,187
7.9721,192
7.9907,178
8.0092,183
8.0278,177
8.0464,189
8.0650,201
8.0835,186
8.1021,192
8.1207,195
8.1393,209
8.1579,210
8.1764,200
8.1950,192
8.2136,179
8.2322,179
8.2507,188
8.2693,185
8.2879,182
8.3065,187
8.3250,204
8.3436,190
8.3622,192
8.3808,203
8.3993,221
8.4179,194
8.4365,193
8.4551,221
8.4736,199
8.4922,230
8.5108,223
8.5294,210
8.5479,199
8.5665,206
8.5851,211
8.6037,208
8.6222,220
8.6408,197
8.6594,207
8.6780,203
8.6965,203
8.7151,219
8.7337,202
8.7523,198
8.7708,198
8.7894,180
8.8080,199
8.8266,211
8.8451,215
8.8637,207
8.8823,228
8.9009,209
8.9195,210
8.9380,227
8.9566,232
8.9752,201
8.9938,206
9.0123,218
9.0309,201
9.0495,221
9.0681,199
9.0866,231
9.1052,225
9.1238,196
9.1424,221
9.1609,193
9.1795,199
9.1981,230
9.2167,190
9.2352,228
9.2538,250
9.2724,218
9.2910,236
9.3095,223
9.3281,221
9.3467,235
9.3653,211
9.3838,221
9.4024,213
9.4210,267
9.4396,229
9.4581,216
9.4767,239
9.4953,238
9.5139,200
9.5324,233
9.5510,253
9.5696,216
9.5882,209
9.6067,248
9.6253,241
9.6439,233
9.6625,237
9.6811,216
9.6996,225
9.7182,218
9.7368,221
9.7554,195
9.7739,257
9.7925,255
9.8111,219
9.8297,232
9.8482,250
9.8668,260
9.8854,209
9.9040,243
9.9225,219
9.9411,230
9.9597,229
9.9783,264
9.9968,233
10.0154,262
10.0340,243
10.0526,258
10.0711,223
10.0897,245
10.1083,257
10.1269,283
10.1454,241
10.1640,253
10.1826,222
10.2012,211
10.2197,239
10.2383,238
10.2569,255
10.2755,235
10.2940,267
10.3126,244
10.3312,244
10.3498,254
10.3683,246
10.3869,217
10.4055,249
10.4241,273
10.4427,229
10.4612,264
10.4798,247
10.4984,249
10.5170,222
10.5355,252
10.5541,247
10.5727,253
10.5913,253
10.6098,232
10.6284,213
10.6470,268
10.6656,248
10.6841,227
10.7027,239
10.7213,243
10.7399,241
10.7584,252
10.7770,256
10.7956,248
10.8142,238
10.8327,253
10.8513,248
10.8699,218
10.8885,259
10.9070,216
10.9256,261
10.9442,239
10.9628,228
10.9813,234
10.9999,245
11.0185,243
11.0371,250
11.0556,223
11.0742,237
11.0928,241
11.1114,227
11.1299,227
11.1485,236
11.1671,260
11.1857,254
11.2043,225
11.2228,219
11.2414,239
11.2600,243
11.2786,223
11.2971,228
11.3157,221
11.3343,227
11.3529,232
11.3714,245
11.3900,254
11.4086,258
11.4272,227
11.4457,230
11.4643,238
11.4829,261
11.5015,248
11.5200,252
11.5386,242
11.5572,229
11.5758,221
11.5943,224
11.6129,246
11.6315,224
11.6501,250
11.6686,265
11.6872,242
11.7058,239
11.7244,238
11.7429,225
11.7615,248
11.7801,245
11.7987,248
11.8172,229
11.8358,260
11.8544,254
11.8730,243
11.8915,237
11.9101,223
11.9287,246
11.9473,205
11.9659,209
11.9844,217
12.0030,241
12.0216,235
12.0402,214
12.0587,212
12.0773,218
12.0959,226
12.1145,218
12.1330,227
12.1516,228
12.1702,228
12.1888,218
12.2073,210
12.2259,247
12.2445,214
12.2631,225
12.2816,232
12.3002,222
12.3188,239
12.3374,210
12.3559,208
12.3745,215
12.3931,226
12.4117,224
12.4302,202
12.4488,212
12.4674,210
12.4860,211
12.5045,233
12.5231,228
12.5417,200
12.5603,222
12.5788,256
12.5974,243
12.6160,214
12.6346,213
12.6531,216
12.6717,228
12.6903,198
12.7089,224
12.7274,231
12.7460,216
12.7646,190
12.7832,227
12.8018,185
12.8203,201
12.8389,222
12.8575,228
12.8761,212
12.8946,211
12.9132,195
12.9318,211
12.9504,216
12.9689,198
12.9875,218
13.0061,204
13.0247,195
13.0432,216
13.0618,197
13.0804,201
13.0990,200
13.1175,217
13.1361,197
13.1547,199
13.1733,168
13.1918,217
13.2104,188
13.2290,186
13.2476,179
13.2661,178
13.2847,204
13.3033,212
13.3219,214
13.3404,195
13.3590,196
13.3776,214
13.3962,210
13.4147,241
13.4333,213
13.4519,215
13.4705,213
13.4890,207
13.5076,177
13.5262,169
13.5448,192
13.5634,186
13.5819,181
13.6005,205
13.6191,174
13.6377,188
13.6562,200
13.6748,195
13.6934,174
13.7120,211
13.7305,186
13.7491,171
13.7677,185
13.7863,182
13.8048,218
13.8234,195
13.8420,200
13.8606,165
13.8791,208
13.8977,182
13.9163,172
13.9349,183
13.9534,198
13.9720,166
13.9906,183
14.0092,191
14.0277,197
14.0463,181
14.0649,204
14.0835,178
14.1020,169
14.1206,178
14.1392,201
14.1578,158
14.1763,175
14.1949,174
14.2135,173
14.2321,191
14.2506,183
14.2692,174
14.2878,178
14.3064,181
14.3250,182
14.3435,191
14.3621,176
14.3807,185
14.3993,185
14.4178,171
14.4364,177
14.4550,145
14.4736,169
14.4921,197
14.5107,167
14.5293,172
14.5479,171
14.5664,175
14.5850,161
14.6036,181
14.6222,166
14.6407,178
14.6593,139
14.6779,178
14.6965,169
14.7150,181
14.7336,169
14.7522,190
14.7708,176
14.7893,172
14.8079,165
14.8265,172
14.8451,188
14.8636,170
14.8822,162
14.9008,167
14.9194,155
14.9379,157
14.9565,178
14.9751,155
14.9937,160
15.0122,177
15.0308,164
15.0494,155
15.0680,173
15.0866,176
15.1051,152
15.1237,185
15.1423,179
15.1609,159
15.1794,164
15.1980,171
15.2166,193
15.2352,167
15.2537,151
15.2723,156
15.2909,162
15.3095,176
15.3280,183
15.3466,181
15.3652,155
15.3838,155
15.4023,137
15.4209,180
15.4395,157
15.4581,162
15.4766,157
15.4952,164
15.5138,184
15.5324,164
15.5509,168
15.5695,156
15.5881,152
15.6067,151
15.6252,170
15.6438,157
15.6624,172
15.6810,191
15.6995,166
15.7181,171
15.7367,182
15.7553,170
15.7738,151
15.7924,162
15.8110,156
15.8296,166
15.8482,167
15.8667,172
15.8853,191
15.9039,164
15.9225,166
15.9410,160
15.9596,147
15.9782,166
15.9968,158
16.0153,176
16.0339,158
16.0525,164
16.0711,158
16.0896,172
16.1082,151
16.1268,155
16.1454,164
16.1639,163
16.1825,161
16.2011,182
16.2197,152
16.2382,160
16.2568,165
16.2754,166
16.2940,150
16.3125,166
16.3311,192
16.3497,135
16.3683,156
16.3868,155
16.4054,171
16.4240,145
16.4426,165
16.4611,177
16.4797,152
16.4983,170
16.5169,164
16.5354,177
16.5540,138
16.5726,183
16.5912,150
16.6097,165
16.6283,147
16.6469,148
16.6655,176
16.6841,161
16.7026,155
16.7212,169
16.7398,141
16.7584,163
16.7769,167
16.7955,179
16.8141,170
16.8327,158
16.8512,174
16.8698,165
16.8884,162
16.9070,165
16.9255,158
16.9441,147
16.9627,172
16.9813,174
16.9998,156
17.0184,145
17.0370,154
17.0556,154
17.0741,155
17.0927,161
17.1113,168
17.1299,169
17.1484,157
17.1670,159
17.1856,161
17.2042,172
17.2227,179
17.2413,160
17.2599,159
17.2785,179
17.2970,166
17.3156,164
17.3342,166
17.3528,180
17.3713,181
17.3899,151
17.4085,161
17.4271,162
17.4457,155
17.4642,176
17.4828,162
17.5014,180
17.5200,168
17.5385,167
17.5571,166
17.5757,155
17.5943,156
17.6128,154
17.6314,176
17.6500,149
17.6686,198
17.6871,165
17.7057,168
17.7243,170
17.7429,152
17.7614,169
17.7800,164
17.7986,153
17.8172,174
17.8357,177
17.8543,155
17.8729,184
17.8915,162
17.9100,174
17.9286,148
17.9472,156
17.9658,201
17.9843,156
18.0029,154
18.0215,171
18.0401,157
18.0586,163
18.0772,189
18.0958,158
18.1144,155
18.1329,193
18.1515,180
18.1701,170
18.1887,163
18.2073,155
18.2258,160
18.2444,170
18.2630,156
18.2816,175
18.3001,156
18.3187,161
18.3373,169
18.3559,174
18.3744,167
18.3930,173
18.4116,151
18.4302,145
18.4487,148
18.4673,175
18.4859,159
18.5045,170
18.5230,169
18.5416,169
18.5602,205
18.5788,172
18.5973,173
18.6159,191
18.6345,172
18.6531,153
18.6716,164
18.6902,172
18.7088,163
18.7274,176
18.7459,172
18.7645,158
18.7831,176
18.8017,163
18.8202,161
18.8388,179
18.8574,183
18.8760,167
18.8945,167
18.9131,165
18.9317,160
18.9503,167
18.9689,167
18.9874,163
19.0060,188
19.0246,191
19.0432,166
19.0617,175
19.0803,171
19.0989,147
19.1175,168
19.1360,192
19.1546,174
19.1732,172
19.1918,188
19.2103,192
19.2289,188
19.2475,170
19.2661,159
19.2846,163
19.3032,203
19.3218,164
19.3404,161
19.3589,182
19.3775,172
19.3961,164
19.4147,191
19.4332,177
19.4518,167
19.4704,179
19.4890,155
19.5075,170
19.5261,176
19.5447,164
19.5633,181
19.5818,192
19.6004,161
19.6190,177
19.6376,186
19.6561,164
19.6747,148
19.6933,194
19.7119,160
19.7305,188
19.7490,187
19.7676,163
19.7862,181
19.8048,154
19.8233,180
19.8419,147
19.8605,163
19.8791,186
19.8976,183
19.9162,172
19.9348,191
19.9534,157
19.9719,175
19.9905,186
20.0091,188
20.0277,198
20.0462,205
20.0648,192
20.0834,196
20.1020,198
20.1205,208
20.1391,195
20.1577,185
20.1763,159
20.1948,179
20.2134,180
20.2320,179
20.2506,186
20.2691,205
20.2877,208
20.3063,173
20.3249,206
20.3434,177
20.3620,186
20.3806,180
20.3992,179
20.4177,193
20.4363,179
20.4549,198
20.4735,180
20.4921,200
20.5106,162
20.5292,207
20.5478,178
20.5664,198
20.5849,160
20.6035,178
20.6221,211
20.6407,212
20.6592,210
20.6778,202
20.6964,176
20.7150,181
20.7335,201
20.7521,179
20.7707,198
20.7893,204
20.8078,202
20.8264,192
20.8450,174
20.8636,189
20.8821,212
20.9007,200
20.9193,203
20.9379,178
20.9564,197
20.9750,191
20.9936,208
21.0122,193
21.0307,196
21.0493,208
21.0679,223
21.0865,176
21.1050,204
21.1236,227
21.1422,230
21.1608,205
21.1793,284
21.1979,297
21.2165,323
21.2351,327
21.2537,296
21.2722,317
21.2908,319
21.3094,323
21.3280,420
21.3465,486
21.3651,538
21.3837,381
21.4023,377
21.4208,325
21.4394,285
21.4580,238
21.4766,203
21.4951,227
21.5137,186
21.5323,199
21.5509,201
21.5694,179
21.5880,180
21.6066,180
21.6252,185
21.6437,192
21.6623,214
21.6809,193
21.6995,193
21.7180,206
21.7366,188
21.7552,190
21.7738,183
21.7923,200
21.8109,185
21.8295,236
21.8481,187
21.8666,197
21.8852,194
21.9038,207
21.9224,187
21.9409,208
21.9595,202
21.9781,185
21.9967,204
22.0152,182
22.0338,190
22.0524,182
22.0710,176
22.0896,207
22.1081,197
22.1267,205
22.1453,205
22.1639,189
22.1824,220
22.2010,185
22.2196,210
22.2382,196
22.2567,221
22.2753,197
22.2939,215
22.3125,212
22.3310,220
22.3496,195
22.3682,216
22.3868,181
22.4053,220
22.4239,187
22.4425,194
22.4611,186
22.4796,176
22.4982,169
22.5168,201
22.5354,205
22.5539,197
22.5725,195
22.5911,193
22.6097,171
22.6282,217
22.6468,204
22.6654,212
22.6840,187
22.7025,197
22.7211,198
22.7397,180
22.7583,210
22.7768,196
22.7954,171
22.8140,207
22.8326,209
22.8512,210
22.8697,209
22.8883,219
22.9069,184
22.9255,176
22.9440,213
22.9626,214
22.9812,190
22.9998,183
23.0183,210
23.0369,223
23.0555,195
23.0741,226
23.0926,209
23.1112,190
23.1298,195
23.1484,169
23.1669,190
23.1855,212
23.2041,191
23.2227,212
23.2412,191
23.2598,212
23.2784,195
23.2970,195
23.3155,180
23.3341,212
23.3527,212
23.3713,211
23.3898,164
23.4084,218
23.4270,184
23.4456,201
23.4641,189
23.4827,187
23.5013,194
23.5199,203
23.5384,228
23.5570,213
23.5756,200
23.5942,182
23.6128,211
23.6313,201
23.6499,191
23.6685,172
23.6871,203
23.7056,187
23.7242,186
23.7428,192
23.7614,199
23.7799,222
23.7985,206
23.8171,230
23.8357,195
23.8542,214
23.8728,192
23.8914,192
23.9100,202
23.9285,209
23.9471,202
23.9657,216
23.9843,219
24.0028,230
24.0214,197
24.0400,196
24.0586,210
24.0771,211
24.0957,202
24.1143,185
24.1329,206
24.1514,195
24.1700,198
24.1886,211
24.2072,190
24.2257,210
24.2443,220
24.2629,239
24.2815,226
24.3000,240
24.3186,234
24.3372,240
24.3558,246
24.3744,224
24.3929,203
24.4115,204
24.4301,196
24.4487,204
24.4672,204
24.4858,216
24.5044,215
24.5230,208
24.5415,222
24.5601,237
24.5787,189
24.5973,193
24.6158,196
24.6344,183
24.6530,204
24.6716,198
24.6901,183
24.7087,210
24.7273,197
24.7459,201
24.7644,198
24.7830,212
24.8016,189
24.8202,210
24.8387,201
24.8573,173
24.8759,220
24.8945,198
24.9130,188
24.9316,189
24.9502,205
24.9688,204
24.9873,208
25.0059,197
25.0245,217
25.0431,200
25.0616,199
25.0802,209
25.0988,206
25.1174,214
25.1360,199
25.1545,192
25.1731,212
25.1917,224
25.2103,190
25.2288,206
25.2474,193
25.2660,158
25.2846,224
25.3031,198
25.3217,225
25.3403,175
25.3589,167
25.3774,204
25.3960,210
25.4146,189
25.4332,192
25.4517,177
25.4703,204
25.4889,203
25.5075,193
25.5260,200
25.5446,195
25.5632,193
25.5818,226
25.6003,186
25.6189,190
25.6375,220
25.6561,192
25.6746,233
25.6932,213
25.7118,217
25.7304,200
25.7489,207
25.7675,210
25.7861,195
25.8047,189
25.8232,190
25.8418,203
25.8604,173
25.8790,183
25.8976,235
25.9161,194
25.9347,215
25.9533,195
25.9719,183
25.9904,171
26.0090,176
26.0276,205
26.0462,188
26.0647,198
26.0833,218
26.1019,211
26.1205,195
26.1390,167
26.1576,175
26.1762,205
26.1948,184
26.2133,197
26.2319,194
26.2505,196
26.2691,183
26.2876,180
26.3062,190
26.3248,164
26.3434,198
26.3619,192
26.3805,195
26.3991,157
26.4177,204
26.4362,164
26.4548,207
26.4734,195
26.4920,175
26.5105,191
26.5291,191
26.5477,191
26.5663,183
26.5848,220
26.6034,176
26.6220,178
26.6406,190
26.6591,181
26.6777,197
26.6963,175
26.7149,191
26.7335,189
26.7520,179
26.7706,207
26.7892,217
26.8078,186
26.8263,184
26.8449,189
26.8635,162
26.8821,185
26.9006,188
26.9192,185
26.9378,182
26.9564,155
26.9749,183
26.9935,198
27.0121,168
27.0307,177
27.0492,184
27.0678,195
27.0864,172
27.1050,237
27.1235,224
27.1421,202
27.1607,197
27.1793,245
27.1978,225
27.2164,236
27.2350,237
27.2536,223
27.2721,224
27.2907,237
27.3093,224
27.3279,201
27.3464,191
27.3650,168
27.3836,201
27.4022,198
27.4207,181
27.4393,198
27.4579,173
27.4765,165
27.4951,188
27.5136,195
27.5322,185
27.5508,176
27.5694,168
27.5879,159
27.6065,173
27.6251,177
27.6437,183
27.6622,178
27.6808,156
27.6994,192
27.7180,157
27.7365,192
27.7551,160
27.7737,168
27.7923,180
27.8108,172
27.8294,168
27.8480,191
27.8666,186
27.8851,165
27.9037,178
27.9223,192
27.9409,180
27.9594,159
27.9780,176
27.9966,180
28.0152,183
28.0337,174
28.0523,193
28.0709,187
28.0895,183
28.1080,173
28.1266,158
28.1452,156
28.1638,170
28.1823,166
28.2009,178
28.2195,171
28.2381,161
28.2567,171
28.2752,166
28.2938,164
28.3124,173
28.3310,178
28.3495,164
28.3681,176
28.3867,169
28.4053,181
28.4238,175
28.4424,160
28.4610,163
28.4796,168
28.4981,175
28.5167,195
28.5353,186
28.5539,159
28.5724,174
28.5910,184
28.6096,169
28.6282,151
28.6467,181
28.6653,172
28.6839,189
28.7025,181
28.7210,183
28.7396,165
28.7582,169
28.7768,167
28.7953,171
28.8139,152
28.8325,169
28.8511,164
28.8696,159
28.8882,195
28.9068,177
28.9254,186
28.9439,161
28.9625,158
28.9811,144
28.9997,165
29.0183,161
29.0368,161
29.0554,147
29.0740,173
29.0926,157
29.1111,157
29.1297,167
29.1483,160
29.1669,158
29.1854,165
29.2040,169
29.2226,149
29.2412,160
29.2597,158
29.2783,145
29.2969,168
29.3155,147
29.3340,170
29.3526,162
29.3712,157
29.3898,165
29.4083,148
29.4269,170
29.4455,171
29.4641,187
29.4826,157
29.5012,156
29.5198,168
29.5384,174
29.5569,152
29.5755,168
29.5941,148
29.6127,158
29.6312,146
29.6498,157
29.6684,143
29.6870,149
29.7055,149
29.7241,152
29.7427,145
29.7613,192
29.7799,174
29.7984,163
29.8170,163
29.8356,161
29.8542,158
29.8727,157
29.8913,159
29.9099,159
29.9285,154
29.9470,151
29.9656,153
29.9842,150
30.0028,145
30.0213,143
30.0399,145
30.0585,167
30.0771,143
30.0956,155
30.1142,155
30.1328,155
30.1514,159
30.1699,151
30.1885,163
30.2071,162
30.2257,153
30.2442,164
30.2628,170
30.2814,139
30.3000,155
30.3185,173
30.3371,200
30.3557,256
30.3743,304
30.3928,377
30.4114,267
30.4300,250
30.4486,258
30.4671,247
30.4857,218
30.5043,190
30.5229,165
30.5415,167
30.5600,177
30.5786,154
30.5972,146
30.6158,148
30.6343,144
30.6529,166
30.6715,160
30.6901,174
30.7086,153
30.7272,164
30.7458,152
30.7644,128
30.7829,147
30.8015,129
30.8201,142
30.8387,157
30.8572,137
30.8758,153
30.8944,166
30.9130,145
30.9315,139
30.9501,156
30.9687,150
30.9873,152
31.0058,149
31.0244,152
31.0430,151
31.0616,149
31.0801,147
31.0987,155
31.1173,146
31.1359,150
31.1544,160
31.1730,122
31.1916,142
31.2102,135
31.2287,153
31.2473,153
31.2659,139
31.2845,134
31.3030,156
31.3216,130
31.3402,141
31.3588,118
31.3774,139
31.3959,132
31.4145,126
31.4331,136
31.4517,156
31.4702,132
31.4888,149
31.5074,154
31.5260,132
31.5445,163
31.5631,127
31.5817,167
31.6003,148
31.6188,127
31.6374,142
31.6560,142
31.6746,131
31.6931,136
31.7117,125
31.7303,130
31.7489,116
31.7674,136
31.7860,131
31.8046,129
31.8232,128
31.8417,146
31.8603,135
31.8789,148
31.8975,138
31.9160,145
31.9346,128
31.9532,154
31.9718,126
31.9903,122
32.0089,134
32.0275,136
32.0461,140
32.0646,132
32.0832,125
32.1018,162
32.1204,129
32.1390,154
32.1575,132
32.1761,147
32.1947,149
32.2133,153
32.2318,136
32.2504,152
32.2690,132
32.2876,122
32.3061,142
32.3247,151
32.3433,116
32.3619,149
32.3804,118
32.3990,133
32.4176,142
32.4362,158
32.4547,154
32.4733,156
32.4919,154
32.5105,153
32.5290,161
32.5476,155
32.5662,144
32.5848,141
32.6033,133
32.6219,152
32.6405,133
32.6591,124
32.6776,131
32.6962,123
32.7148,141
32.7334,124
32.7519,111
32.7705,126
32.7891,116
32.8077,128
32.8262,113
32.8448,125
32.8634,128
32.8820,132
32.9006,109
32.9191,146
32.9377,117
32.9563,126
32.9749,122
32.9934,144
33.0120,131
33.0306,120
33.0492,140
33.0677,131
33.0863,127
33.1049,127
33.1235,112
33.1420,128
33.1606,120
33.1792,123
33.1978,135
33.2163,113
33.2349,135
33.2535,117
33.2721,127
33.2906,116
33.3092,111
33.3278,114
33.3464,108
33.3649,107
33.3835,137
33.4021,118
33.4207,111
33.4392,100
33.4578,118
33.4764,118
33.4950,120
33.5135,115
33.5321,115
33.5507,123
33.5693,120
33.5878,142
33.6064,142
33.6250,108
33.6436,114
33.6622,118
33.6807,116
33.6993,111
33.7179,95
33.7365,103
33.7550,116
33.7736,113
33.7922,105
33.8108,138
33.8293,120
33.8479,96
33.8665,127
33.8851,119
33.9036,110
33.9222,135
33.9408,113
33.9594,105
33.9779,112
33.9965,116
34.0151,108
34.0337,120
34.0522,121
34.0708,104
34.0894,129
34.1080,119
34.1265,123
34.1451,100
34.1637,105
34.1823,104
34.2008,110
34.2194,110
34.2380,127
34.2566,104
34.2751,131
34.2937,118
34.3123,126
34.3309,131
34.3494,118
34.3680,103
34.3866,110
34.4052,115
34.4238,127
34.4423,109
34.4609,110
34.4795,128
34.4981,113
34.5166,129
34.5352,131
34.5538,113
34.5724,112
34.5909,128
34.6095,135
34.6281,133
34.6467,131
34.6652,141
34.6838,133
34.7024,139
34.7210,158
34.7395,180
34.7581,163
34.7767,161
34.7953,138
34.8138,146
34.8324,159
34.8510,152
34.8696,140
34.8881,142
34.9067,157
34.9253,133
34.9439,126
34.9624,115
34.9810,118
34.9996,106
35.0182,111
35.0367,114
35.0553,122
35.0739,129
35.0925,111
35.1110,124
35.1296,121
35.1482,137
35.1668,92
35.1854,124
35.2039,123
35.2225,114
35.2411,80
35.2597,119
35.2782,96
35.2968,115
35.3154,91
35.3340,112
35.3525,104
35.3711,100
35.3897,100
35.4083,72
35.4268,103
35.4454,91
35.4640,100
35.4826,97
35.5011,110
35.5197,118
35.5383,103
35.5569,96
35.5754,104
35.5940,113
35.6126,107
35.6312,102
35.6497,107
35.6683,102
35.6869,98
35.7055,116
35.7240,94
35.7426,125
35.7612,118
35.7798,103
35.7983,98
35.8169,103
35.8355,99
35.8541,115
35.8726,97
35.8912,118
35.9098,91
35.9284,95
35.9469,104
35.9655,92
35.9841,108
36.0027,115
36.0213,108
36.0398,99
36.0584,108
36.0770,104
36.0956,108
36.1141,116
36.1327,86
36.1513,95
36.1699,104
36.1884,89
36.2070,98
36.2256,106
36.2442,91
36.2627,102
36.2813,114
36.2999,96
36.3185,92
36.3370,88
36.3556,94
36.3742,90
36.3928,89
36.4113,84
36.4299,100
36.4485,104
36.4671,92
36.4856,122
36.5042,86
36.5228,103
36.5414,80
36.5599,97
36.5785,92
36.5971,97
36.6157,105
36.6342,93
36.6528,92
36.6714,95
36.6900,99
36.7085,99
36.7271,85
36.7457,122
36.7643,102
36.7829,84
36.8014,98
36.8200,97
36.8386,102
36.8572,93
36.8757,84
36.8943,96
36.9129,110
36.9315,96
36.9500,92
36.9686,101
36.9872,91
37.0058,79
37.0243,94
37.0429,94
37.0615,90
37.0801,91
37.0986,85
37.1172,89
37.1358,102
37.1544,109
37.1729,86
37.1915,94
37.2101,101
37.2287,97
37.2472,92
37.2658,97
37.2844,92
37.3030,79
37.3215,78
37.3401,98
37.3587,86
37.3773,102
37.3958,116
37.4144,119
37.4330,155
37.4516,161
37.4701,141
37.4887,131
37.5073,107
37.5259,116
37.5445,120
37.5630,102
37.5816,100
37.6002,100
37.6188,102
37.6373,103
37.6559,100
37.6745,108
37.6931,94
37.7116,63
37.7302,86
37.7488,86
37.7674,89
37.7859,88
37.8045,85
37.8231,82
37.8417,106
37.8602,74
37.8788,85
37.8974,89
37.9160,78
37.9345,91
37.9531,94
37.9717,86
37.9903,89
38.0088,107
38.0274,99
38.0460,64
38.0646,84
38.0831,79
38.1017,84
38.1203,99
38.1389,85
38.1574,76
38.1760,93
38.1946,97
38.2132,87
38.2317,92
38.2503,75
38.2689,76
38.2875,95
38.3061,77
38.3246,85
38.3432,88
38.3618,74
38.3804,90
38.3989,93
38.4175,83
38.4361,90
38.4547,101
38.4732,100
38.4918,94
38.5104,91
38.5290,88
38.5475,91
38.5661,79
38.5847,73
38.6033,84
38.6218,83
38.6404,69
38.6590,85
38.6776,87
38.6961,99
38.7147,91
38.7333,120
38.7519,103
38.7704,71
38.7890,62
38.8076,94
38.8262,96
38.8447,83
38.8633,80
38.8819,77
38.9005,72
38.9190,94
38.9376,92
38.9562,88
38.9748,99
38.9933,93
39.0119,82
39.0305,85
39.0491,85
39.0677,79
39.0862,107
39.1048,72
39.1234,84
39.1420,89
39.1605,89
39.1791,81
39.1977,91
39.2163,73
39.2348,80
39.2534,71
39.2720,83
39.2906,75
39.3091,77
39.3277,76
39.3463,73
39.3649,64
39.3834,92
39.4020,64
39.4206,89
39.4392,89
39.4577,75
39.4763,78
39.4949,77
39.5135,76
39.5320,85
39.5506,80
39.5692,84
39.5878,71
39.6063,72
39.6249,95
39.6435,79
39.6621,68
39.6806,91
39.6992,107
39.7178,74
39.7364,84
39.7549,83
39.7735,65
39.7921,88
39.8107,78
39.8293,88
39.8478,64
39.8664,72
39.8850,71
39.9036,79
39.9221,76
39.9407,74
39.9593,59
39.9779,72
39.9964,77
40.0150,80
40.0336,75
40.0522,68
40.0707,91
40.0893,79
40.1079,75
40.1265,81
40.1450,62
40.1636,76
40.1822,74
40.2008,86
40.2193,76
40.2379,78
40.2565,71
40.2751,76
40.2936,80
40.3122,97
40.3308,91
40.3494,56
40.3679,78
40.3865,78
40.4051,79
40.4237,79
40.4422,83
40.4608,79
40.4794,78
40.4980,88
40.5165,80
40.5351,85
40.5537,89
40.5723,89
40.5908,84
40.6094,78
40.6280,69
40.6466,69
40.6652,71
40.6837,81
40.7023,77
40.7209,84
40.7395,93
40.7580,72
40.7766,78
40.7952,81
40.8138,85
40.8323,71
40.8509,83
40.8695,66
40.8881,87
40.9066,80
40.9252,76
40.9438,92
40.9624,92
40.9809,70
40.9995,87
41.0181,82
41.0367,74
41.0552,80
41.0738,71
41.0924,75
41.1110,68
41.1295,82
41.1481,63
41.1667,76
41.1853,79
41.2038,70
41.2224,65
41.2410,99
41.2596,72
41.2781,72
41.2967,69
41.3153,69
41.3339,75
41.3524,80
41.3710,80
41.3896,71
41.4082,93
41.4268,67
41.4453,82
41.4639,95
41.4825,77
41.5011,85
41.5196,77
41.5382,87
41.5568,78
41.5754,69
41.5939,65
41.6125,63
41.6311,76
41.6497,68
41.6682,81
41.6868,86
41.7054,75
41.7240,71
41.7425,79
41.7611,101
41.7797,82
41.7983,82
41.8168,77
41.8354,72
41.8540,70
41.8726,103
41.8911,74
41.9097,67
41.9283,74
41.9469,83
41.9654,71
41.9840,70
42.0026,76
42.0212,68
42.0397,70
42.0583,76
42.0769,71
42.0955,82
42.1140,62
42.1326,78
42.1512,89
42.1698,55
42.1884,67
42.2069,71
42.2255,63
42.2441,91
42.2627,72
42.2812,76
42.2998,73
42.3184,83
42.3370,86
42.3555,82
42.3741,75
42.3927,78
42.4113,78
42.4298,80
42.4484,69
42.4670,77
42.4856,73
42.5041,89
42.5227,81
42.5413,70
42.5599,74
42.5784,73
42.5970,67
42.6156,69
42.6342,81
42.6527,68
42.6713,67
42.6899,63
42.7085,73
42.7270,76
42.7456,83
42.7642,74
42.7828,71
42.8013,60
42.8199,72
42.8385,67
42.8571,84
42.8756,75
42.8942,82
42.9128,83
42.9314,72
42.9500,77
42.9685,50
42.9871,71
43.0057,75
43.0243,80
43.0428,77
43.0614,66
43.0800,74
43.0986,79
43.1171,81
43.1357,68
43.1543,66
43.1729,70
43.1914,83
43.2100,107
43.2286,90
43.2472,105
43.2657,105
43.2843,98
43.3029,100
43.3215,88
43.3400,91
43.3586,85
43.3772,62
43.3958,76
43.4143,95
43.4329,83
43.4515,85
43.4701,111
43.4886,120
43.5072,129
43.5258,119
43.5444,80
43.5629,90
43.5815,104
43.6001,98
43.6187,104
43.6372,100
43.6558,108
43.6744,97
43.6930,63
43.7116,80
43.7301,93
43.7487,62
43.7673,84
43.7859,76
43.8044,85
43.8230,68
43.8416,79
43.8602,79
43.8787,85
43.8973,88
43.9159,81
43.9345,78
43.9530,77
43.9716,79
43.9902,80
44.0088,79
44.0273,89
44.0459,94
44.0645,78
44.0831,72
44.1016,69
44.1202,72
44.1388,78
44.1574,79
44.1759,87
44.1945,74
44.2131,67
44.2317,63
44.2502,80
44.2688,75
44.2874,72
44.3060,65
44.3245,87
44.3431,69
44.3617,81
44.3803,94
44.3988,91
44.4174,74
44.4360,72
44.4546,86
44.4732,94
44.4917,78
44.5103,74
44.5289,88
44.5475,81
44.5660,78
44.5846,93
44.6032,89
44.6218,86
44.6403,74
44.6589,78
44.6775,82
44.6961,89
44.7146,79
44.7332,77
44.7518,74
44.7704,76
44.7889,83
44.8075,62
44.8261,85
44.8447,71
44.8632,107
44.8818,84
44.9004,79
44.9190,63
44.9375,71
44.9561,76
44.9747,66
44.9933,85
45.0118,56
45.0304,70
45.0490,63
45.0676,80
45.0861,73
45.1047,71
45.1233,75
45.1419,61
45.1604,75
45.1790,58
45.1976,62
45.2162,62
45.2347,82
45.2533,73
45.2719,80
45.2905,62
45.3091,67
45.3276,69
45.3462,69
45.3648,63
45.3834,73
45.4019,76
45.4205,65
45.4391,74
45.4577,72
45.4762,96
45.4948,70
45.5134,58
45.5320,66
45.5505,83
45.5691,58
45.5877,49
45.6063,77
45.6248,73
45.6434,74
45.6620,72
45.6806,71
45.6991,64
45.7177,63
45.7363,65
45.7549,62
45.7734,81
45.7920,74
45.8106,82
45.8292,69
45.8477,64
45.8663,54
45.8849,65
45.9035,75
45.9220,86
45.9406,61
45.9592,76
45.9778,73
45.9963,77
46.0149,69
46.0335,69
46.0521,77
46.0707,67
46.0892,63
46.1078,73
46.1264,68
46.1450,78
46.1635,67
46.1821,63
46.2007,67
46.2193,72
46.2378,68
46.2564,57
46.2750,68
46.2936,53
46.3121,74
46.3307,65
46.3493,71
46.3679,72
46.3864,55
46.4050,79
46.4236,81
46.4422,65
46.4607,64
46.4793,75
46.4979,67
46.5165,69
46.5350,84
46.5536,61
46.5722,60
46.5908,49
46.6093,57
46.6279,55
46.6465,73
46.6651,58
46.6836,60
46.7022,69
46.7208,62
46.7394,70
46.7579,64
46.7765,57
46.7951,75
46.8137,65
46.8323,73
46.8508,78
46.8694,62
46.8880,72
46.9066,72
46.9251,68
46.9437,61
46.9623,67
46.9809,81
46.9994,79
47.0180,68
47.0366,73
47.0552,67
47.0737,84
47.0923,64
47.1109,58
47.1295,68
47.1480,59
47.1666,54
47.1852,74
47.2038,68
47.2223,54
47.2409,78
47.2595,67
47.2781,71
47.2966,64
47.3152,88
47.3338,86
47.3524,57
47.3709,74
47.3895,67
47.4081,54
47.4267,59
47.4452,61
47.4638,62
47.4824,79
47.5010,62
47.5195,73
47.5381,71
47.5567,65
47.5753,63
47.5939,71
47.6124,69
47.6310,60
47.6496,60
47.6682,52
47.6867,63
47.7053,71
47.7239,66
47.7425,73
47.7610,75
47.7796,55
47.7982,54
47.8168,68
47.8353,79
47.8539,58
47.8725,80
47.8911,69
47.9096,70
47.9282,72
47.9468,55
47.9654,61
47.9839,79
48.0025,65
48.0211,60
48.0397,77
48.0582,63
48.0768,69
48.0954,72
48.1140,63
48.1325,61
48.1511,63
48.1697,60
48.1883,71
48.2068,50
48.2254,60
48.2440,58
48.2626,68
48.2811,70
48.2997,59
48.3183,62
48.3369,59
48.3555,62
48.3740,61
48.3926,62
48.4112,68
48.4298,76
48.4483,69
48.4669,71
48.4855,66
48.5041,63
48.5226,51
48.5412,49
48.5598,56
48.5784,52
48.5969,64
48.6155,66
48.6341,74
48.6527,62
48.6712,70
48.6898,87
48.7084,73
48.7270,71
48.7455,64
48.7641,51
48.7827,65
48.8013,66
48.8198,75
48.8384,65
48.8570,75
48.8756,70
48.8941,59
48.9127,90
48.9313,109
48.9499,129
48.9684,144
48.9870,95
49.0056,84
49.0242,72
49.0427,84
49.0613,89
49.0799,92
49.0985,101
49.1171,81
49.1356,76
49.1542,59
49.1728,71
49.1914,73
49.2099,74
49.2285,67
49.2471,52
49.2657,60
49.2842,82
49.3028,56
49.3214,58
49.3400,67
49.3585,74
49.3771,70
49.3957,69
49.4143,59
49.4328,56
49.4514,46
49.4700,78
49.4886,55
49.5071,77
49.5257,54
49.5443,63
49.5629,53
49.5814,66
49.6000,60
49.6186,70
49.6372,67
49.6557,65
49.6743,56
49.6929,51
49.7115,67
49.7300,55
49.7486,66
49.7672,69
49.7858,68
49.8043,62
49.8229,62
49.8415,46
49.8601,59
49.8786,69
49.8972,60
49.9158,64
49.9344,48
49.9530,46
49.9715,63
49.9901,56
50.0087,64
50.0273,59
50.0458,63
50.0644,64
50.0830,47
50.1016,52
50.1201,70
50.1387,72
50.1573,56
50.1759,60
50.1944,64
50.2130,63
50.2316,68
50.2502,73
50.2687,62
50.2873,59
50.3059,68
50.3245,59
50.3430,71
50.3616,66
50.3802,58
50.3988,57
50.4173,47
50.4359,81
50.4545,59
50.4731,79
50.4916,64
50.5102,71
50.5288,64
50.5474,52
50.5659,57
50.5845,60
50.6031,69
50.6217,60
50.6402,64
50.6588,53
50.6774,57
50.6960,66
50.7146,59
50.7331,70
50.7517,51
50.7703,54
50.7889,55
50.8074,73
50.8260,65
50.8446,59
50.8632,53
50.8817,52
50.9003,47
50.9189,53
50.9375,49
50.9560,67
50.9746,65
50.9932,57
51.0118,61
51.0303,70
51.0489,63
51.0675,63
51.0861,52
51.1046,52
51.1232,55
51.1418,62
51.1604,60
51.1789,67
51.1975,57
51.2161,56
51.2347,57
51.2532,42
51.2718,58
51.2904,65
51.3090,56
51.3275,50
51.3461,63
51.3647,73
51.3833,76
51.4018,62
51.4204,79
51.4390,79
51.4576,68
51.4762,59
51.4947,95
51.5133,74
51.5319,51
51.5505,63
51.5690,71
51.5876,52
51.6062,67
51.6248,68
51.6433,57
51.6619,59
51.6805,67
51.6991,80
51.7176,62
51.7362,67
51.7548,66
51.7734,66
51.7919,80
51.8105,65
51.8291,56
51.8477,67
51.8662,73
51.8848,76
51.9034,70
51.9220,69
51.9405,69
51.9591,78
51.9777,77
51.9963,70
52.0148,65
52.0334,49
52.0520,74
52.0706,67
52.0891,66
52.1077,68
52.1263,54
52.1449,53
52.1634,58
52.1820,61
52.2006,75
52.2192,61
52.2378,60
52.2563,65
52.2749,75
52.2935,73
52.3121,61
52.3306,63
52.3492,54
52.3678,49
52.3864,64
52.4049,62
52.4235,55
52.4421,71
52.4607,56
52.4792,57
52.4978,61
52.5164,54
52.5350,60
52.5535,54
52.5721,57
52.5907,57
52.6093,59
52.6278,63
52.6464,55
52.6650,62
52.6836,56
52.7021,62
52.7207,78
52.7393,53
52.7579,54
52.7764,61
52.7950,62
52.8136,49
52.8322,49
52.8507,65
52.8693,65
52.8879,57
52.9065,53
52.9250,61
52.9436,57
52.9622,59
52.9808,53
52.9994,64
53.0179,66
53.0365,50
53.0551,55
53.0737,68
53.0922,58
53.1108,56
53.1294,63
53.1480,86
53.1665,61
53.1851,46
53.2037,66
53.2223,66
53.2408,46
53.2594,57
53.2780,63
53.2966,51
53.3151,56
53.3337,68
53.3523,65
53.3709,60
53.3894,57
53.4080,61
53.4266,58
53.4452,69
53.4637,74
53.4823,53
53.5009,56
53.5195,54
53.5380,64
53.5566,43
53.5752,48
53.5938,70
53.6123,61
53.6309,62
53.6495,47
53.6681,56
53.6866,59
53.7052,57
53.7238,62
53.7424,63
53.7610,50
53.7795,54
53.7981,61
53.8167,66
53.8353,59
53.8538,67
53.8724,56
53.8910,61
53.9096,84
53.9281,71
53.9467,73
53.9653,88
53.9839,92
54.0024,99
54.0210,65
54.0396,81
54.0582,72
54.0767,79
54.0953,71
54.1139,98
54.1325,84
54.1510,63
54.1696,48
54.1882,60
54.2068,59
54.2253,61
54.2439,65
54.2625,66
54.2811,48
54.2996,47
54.3182,59
54.3368,66
54.3554,63
54.3739,62
54.3925,43
54.4111,45
54.4297,61
54.4482,61
54.4668,48
54.4854,57
54.5040,61
54.5225,54
54.5411,61
54.5597,62
54.5783,65
54.5969,62
54.6154,59
54.6340,48
54.6526,52
54.6712,57
54.6897,60
54.7083,54
54.7269,51
54.7455,59
54.7640,41
54.7826,40
54.8012,69
54.8198,54
54.8383,48
54.8569,57
54.8755,67
54.8941,42
54.9126,56
54.9312,58
54.9498,61
54.9684,60
54.9869,51
55.0055,50
55.0241,63
55.0427,67
55.0612,60
55.0798,62
55.0984,58
55.1170,54
55.1355,73
55.1541,59
55.1727,45
55.1913,35
55.2098,60
55.2284,53
55.2470,47
55.2656,63
55.2841,53
55.3027,56
55.3213,51
55.3399,58
55.3585,60
55.3770,54
55.3956,69
55.4142,49
55.4328,70
55.4513,56
55.4699,68
55.4885,52
55.5071,66
55.5256,61
55.5442,57
55.5628,54
55.5814,49
55.5999,64
55.6185,76
55.6371,61
55.6557,42
55.6742,48
55.6928,62
55.7114,63
55.7300,64
55.7485,60
55.7671,62
55.7857,43
55.8043,57
55.8228,61
55.8414,60
55.8600,63
55.8786,44
55.8971,57
55.9157,65
55.9343,51
55.9529,51
55.9714,59
55.9900,66
56.0086,69
56.0272,69
56.0457,69
56.0643,59
56.0829,51
56.1015,63
56.1201,57
56.1386,55
56.1572,54
56.1758,76
56.1944,61
56.2129,55
56.2315,63
56.2501,66
56.2687,68
56.2872,51
56.3058,62
56.3244,62
56.3430,57
56.3615,79
56.3801,46
56.3987,66
56.4173,51
56.4358,48
56.4544,54
56.4730,63
56.4916,52
56.5101,47
56.5287,52
56.5473,66
56.5659,64
56.5844,45
56.6030,53
56.6216,58
56.6402,58
56.6587,70
56.6773,60
56.6959,59
56.7145,79
56.7330,68
56.7516,46
56.7702,62
56.7888,54
56.8073,67
56.8259,69
56.8445,47
56.8631,46
56.8817,70
56.9002,66
56.9188,48
56.9374,39
56.9560,47
56.9745,42
56.9931,64
57.0117,63
57.0303,60
57.0488,61
57.0674,55
57.0860,66
57.1046,55
57.1231,45
57.1417,54
57.1603,48
57.1789,54
57.1974,57
57.2160,56
57.2346,54
57.2532,65
57.2717,60
57.2903,51
57.3089,50
57.3275,57
57.3460,61
57.3646,48
57.3832,67
57.4018,58
57.4203,57
57.4389,63
57.4575,46
57.4761,44
57.4946,56
57.5132,65
57.5318,58
57.5504,58
57.5689,52
57.5875,53
57.6061,55
57.6247,62
57.6433,58
57.6618,53
57.6804,50
57.6990,49
57.7176,53
57.7361,51
57.7547,66
57.7733,48
57.7919,49
57.8104,45
57.8290,50
57.8476,59
57.8662,53
57.8847,63
57.9033,62
57.9219,67
57.9405,42
57.9590,48
57.9776,61
57.9962,62
58.0148,53
58.0333,60
58.0519,61
58.0705,66
58.0891,61
58.1076,48
58.1262,66
58.1448,70
58.1634,61
58.1819,42
58.2005,57
58.2191,48
58.2377,41
58.2562,65
58.2748,59
58.2934,54
58.3120,51
58.3305,66
58.3491,54
58.3677,48
58.3863,47
58.4049,62
58.4234,65
58.4420,47
58.4606,32
58.4792,52
58.4977,58
58.5163,60
58.5349,55
58.5535,43
58.5720,60
58.5906,59
58.6092,52
58.6278,56
58.6463,59
58.6649,61
58.6835,63
58.7021,69
58.7206,52
58.7392,62
58.7578,55
58.7764,61
58.7949,51
58.8135,50
58.8321,50
58.8507,53
58.8692,59
58.8878,53
58.9064,59
58.9250,45
58.9435,57
58.9621,54
58.9807,49
58.9993,50
59.0178,65
59.0364,54
59.0550,60
59.0736,42
59.0921,31
59.1107,70
59.1293,58
59.1479,53
59.1664,48
59.1850,59
59.2036,48
59.2222,56
59.2408,54
59.2593,61
59.2779,52
59.2965,61
59.3151,61
59.3336,48
59.3522,58
59.3708,64
59.3894,59
59.4079,51
59.4265,51
59.4451,64
59.4637,52
59.4822,52
59.5008,68
59.5194,55
59.5380,65
59.5565,60
59.5751,51
59.5937,54
59.6123,38
59.6308,46
59.6494,66
59.6680,48
59.6866,59
59.7051,50
59.7237,59
59.7423,63
59.7609,57
59.7794,56
59.7980,63
59.8166,63
59.8352,50
59.8537,64
59.8723,60
59.8909,49
59.9095,45
59.9280,57
59.9466,55
59.9652,42
59.9838,48
60.0024,50
